Red geotherm from Glisovic et al., 2014, figure 1; Depth(km), Temp(K)
 0.0 330.0 
 2.0 389.0 
 4.0 391.4 
 6.0 512.4 
 8.0 537.8 
10.0 540.2 
12.0 684.2 
14.0 686.6 
16.0 689.0 
18.0 833.0 
20.0 835.4 
22.0 837.8 
24.0 974.7 
26.0 977.1 
28.0 979.5 
30.0 1102.2 
32.0 1104.6 
34.0 1107.0 
36.0 1208.5 
38.0 1210.9 
40.0 1213.3 
42.0 1307.7 
44.0 1310.1 
46.0 1312.5 
48.0 1399.9 
50.0 1402.3 
52.0 1404.7 
54.0 1477.8 
56.0 1480.2 
58.0 1482.6 
60.0 1548.8 
62.0 1551.1 
64.0 1553.5 
66.0 1605.5 
68.0 1607.9 
70.0 1610.3 
72.0 1669.3 
74.0 1671.7 
76.0 1674.1 
78.0 1683.6 
80.0 1686.0 
82.0 1688.4 
84.0 1719.1 
86.0 1721.5 
88.0 1723.9 
90.0 1733.3 
92.0 1735.7 
94.0 1738.1 
96.0 1747.6 
98.0 1750.0 
100.0 1752.4 
102.0 1754.8 
104.0 1757.2 
106.0 1759.6 
108.0 1762.0 
110.0 1764.4 
112.0 1766.8 
114.0 1769.2 
116.0 1771.6 
118.0 1774.0 
120.0 1776.4 
122.0 1778.7 
124.0 1781.1 
126.0 1782.0 
128.0 1782.0 
130.0 1782.0 
132.0 1783.6 
134.0 1786.0 
136.0 1788.4 
138.0 1789.1 
140.0 1789.1 
142.0 1789.1 
144.0 1790.9 
146.0 1793.3 
148.0 1795.7 
150.0 1796.1 
152.0 1796.1 
154.0 1796.1 
156.0 1796.1 
158.0 1796.1 
160.0 1796.1 
162.0 1796.1 
164.0 1796.1 
166.0 1796.1 
168.0 1796.1 
170.0 1796.1 
172.0 1796.1 
174.0 1796.1 
176.0 1796.1 
178.0 1796.1 
180.0 1796.1 
182.0 1796.1 
184.0 1796.1 
186.0 1796.1 
188.0 1796.1 
190.0 1796.1 
192.0 1796.1 
194.0 1796.1 
196.0 1796.6 
198.0 1799.0 
200.0 1801.4 
250.0 1817.2 
300.0 1829.1 
350.0 1838.3 
400.0 1856.8 
450.0 1866.4 
500.0 1880.5 
550.0 1901.7 
600.0 1915.7 
650.0 1929.8 
700.0 1943.9 
750.0 1964.4 
800.0 1979.1 
850.0 1993.2 
900.0 2009.5 
950.0 2026.9 
1000.0 2042.5 
1050.0 2056.6 
1100.0 2077.8 
1150.0 2084.8 
1200.0 2099.7 
1250.0 2120.0 
1300.0 2127.4 
1350.0 2141.1 
1400.0 2155.1 
1450.0 2169.2 
1500.0 2183.3 
1550.0 2193.2 
1600.0 2204.4 
1650.0 2218.4 
1700.0 2232.5 
1750.0 2239.5 
1800.0 2253.6 
1850.0 2262.1 
1900.0 2274.6 
1950.0 2282.8 
2000.0 2295.7 
2050.0 2302.7 
2100.0 2313.7 
2150.0 2323.8 
2200.0 2330.8 
2250.0 2344.7 
2300.0 2351.8 
2350.0 2365.3 
2400.0 2372.9 
2450.0 2387.0 
2500.0 2396.2 
2550.0 2408.0 
2600.0 2422.1 
2650.0 2429.1 
2700.0 2436.1 
2702.0 2436.1 
2704.0 2436.1 
2706.0 2436.1 
2708.0 2436.1 
2710.0 2436.1 
2712.0 2436.1 
2714.0 2436.1 
2716.0 2436.1 
2718.0 2436.1 
2720.0 2436.1 
2722.0 2436.1 
2724.0 2436.1 
2726.0 2436.1 
2728.0 2436.0 
2730.0 2436.0 
2732.0 2436.0 
2734.0 2436.0 
2736.0 2438.1 
2738.0 2440.5 
2740.0 2442.9 
2742.0 2443.1 
2744.0 2443.1 
2746.0 2443.1 
2748.0 2443.1 
2750.0 2443.1 
2752.0 2443.1 
2754.0 2443.1 
2756.0 2443.1 
2758.0 2443.1 
2760.0 2443.1 
2762.0 2443.1 
2764.0 2443.1 
2766.0 2443.1 
2768.0 2443.1 
2770.0 2443.1 
2772.0 2443.1 
2774.0 2443.0 
2776.0 2443.0 
2778.0 2443.0 
2780.0 2443.0 
2782.0 2443.7 
2784.0 2446.0 
2786.0 2448.4 
2788.0 2450.1 
2790.0 2450.1 
2792.0 2450.1 
2794.0 2450.1 
2796.0 2450.1 
2798.0 2450.1 
2800.0 2451.0 
2802.0 2453.4 
2804.0 2455.8 
2806.0 2457.2 
2808.0 2457.2 
2810.0 2457.2 
2812.0 2458.3 
2814.0 2460.7 
2816.0 2463.1 
2818.0 2465.5 
2820.0 2467.9 
2822.0 2470.3 
2824.0 2472.7 
2826.0 2475.1 
2828.0 2477.5 
2830.0 2487.0 
2832.0 2489.4 
2834.0 2491.8 
2836.0 2501.2 
2838.0 2503.6 
2840.0 2506.0 
2842.0 2522.6 
2844.0 2525.0 
2846.0 2527.4 
2848.0 2579.3 
2850.0 2581.7 
2852.0 2584.1 
2854.0 2621.9 
2856.0 2624.3 
2858.0 2626.7 
2860.0 2678.6 
2862.0 2681.0 
2864.0 2683.4 
2866.0 2770.8 
2868.0 2773.2 
2870.0 2775.6 
2872.0 2848.8 
2874.0 2851.2 
2876.0 2853.6 
2878.0 2969.2 
2880.0 2971.6 
2882.0 2974.0 
2884.0 3103.8 
2886.0 3106.2 
2888.0 3108.6 
2890.0 3259.7 
2892.0 3262.1 
2894.0 3264.5 
2896.0 3295.2 
2898.0 3297.6 
2900.0 3300.0 
